FluorCam10 Kinetics Export File
-----------------------------------
[us]	[°C]	Area 1	Area 2	Area 3	Area 4	Area 5	Area 6	Area 7	Area 8	Area 9	Area 10	Area 11	Area 12	Area 13	Area 14	Area 15	Area 16	Area 17	Area 18	Area 19	Area 20	Area 21	Area 22	Area 23	Area 24	Area 25	Area 26	Area 27	Area 28	Area 29	Area 30	Area 31	Area 32	Area 33	Area 34	Area 35	Area 36	Area 37	Area 38
50000	34.97	862.851	802.085	870.333	812.499	936.51	799.56	809.622	755.177	855.891	845.773	988.502	1083.803	1044.564	906.764	907.979	798.118	809.376	819.062	864.475	979.311	950.574	865.294	858.213	788.111	777.907	941.934	892.29	972.152	1001.08	942.301	905.615	824.267	735.98	775.712	868.445	888.657	855.755	850.69
150000	34.97	599.218	561.214	604.576	547.921	689.303	625.168	506.835	404.986	642.656	645.941	763.124	885.59	869.268	664.551	626.396	452.37	513.679	537	669.415	845.905	728.447	672.377	592.028	483.898	531.689	755.628	701.06	769.782	828.622	738.838	615.374	478.14	408.138	464.169	655.679	672.572	631.849	576.92
30050000	34.97	540.05	626.174	578.433	509.321	637.629	554.507	498.471	450.237	606.644	611.087	715.925	966.893	778.644	642.385	624.126	468.252	518.283	517.469	645.697	802.818	663.567	651.501	602.69	474.381	473.579	694.886	644.191	723.516	804.952	696.229	610.514	497.562	391.997	424.931	565.431	586.804	569.508	553.699
30150000	34.97	591.443	619.841	607.838	515.723	638.556	581.777	461.1	430.681	545.206	597.824	751.635	994.527	808.177	624.94	636.94	530.562	513.502	511.837	614.202	763.062	693.64	649.157	598.402	473.615	466.734	753.61	644.431	763.235	808.671	690.661	585.97	508.855	396.34	454.304	541.25	636.287	590.918	520.35
60050000	34.98	498.628	575.163	516.26	484.165	574.653	505.905	474.998	432.076	504.932	598.245	684.978	854.293	707.928	546.911	579.945	424.651	421.248	472.936	615.395	734.233	669.124	643.977	581.968	469.31	500.787	691.986	646.465	765.268	738.274	669.735	596.648	474.14	408.7	414.246	554.166	495.308	538.963	524.779
60150000	34.99	492.505	540.209	551.382	521.534	590.303	506.885	468.73	417.371	513.403	549.391	705.795	888.167	739.79	605.402	595.245	460.505	457.212	452.967	629.707	711.17	614.667	615.625	574.144	485.849	438.776	678.017	639.956	721.892	778.897	651.733	553.706	512.658	375.288	422.976	523.653	543.037	570.938	500.846
90050000	35	512.339	553.763	509.827	491.405	596.126	508.604	470.498	432.15	472.574	529.984	702.76	890.194	687.364	537.938	571.326	422.481	402.871	475.079	606.519	724.59	639.992	571.962	542.452	473.556	477.203	660.539	606.837	712.686	733.272	633.392	586.283	484	383.026	440.698	565.053	553.961	566.935	492.345
90150000	35	461.585	535.028	530.513	525.57	586.4	510.803	427.77	433.218	510.862	557.515	629.962	872.677	724.256	527.975	576.257	484.349	429.61	469.432	589.041	768.516	645.766	615.239	547.88	405.931	459.661	652.192	614.92	735.539	762.759	658.219	592.52	454.44	435.735	463.788	559.675	546.612	591.133	489.381
120050000	35	477.344	496.51	544.538	473.883	594.413	527.48	470.663	434.937	462.3	569.464	698.855	884.238	682.268	530.366	568.136	435.786	393.74	483.967	653.967	693.2	657.87	643.031	576.493	449.913	459.129	693.8	630.598	715.692	737.842	721.52	544.87	501.896	396.983	470.757	552.131	550.851	577.404	501.341
120150000	35	441.431	560.19	543.096	449.293	603.648	509.212	411.462	457.327	483.718	513.41	678.069	852.571	663.319	561.207	580.113	405.276	405.431	463.24	566.864	693.451	640.358	578.929	548.844	445.343	481.318	606.442	631.441	699.526	774.996	708.204	547.648	501.925	391.536	415.947	562.502	486.085	595.766	476.376
150050000	35.49	466.702	536.904	528.551	475.031	602.404	525.478	416.036	397.207	536.901	525.323	660.769	852.155	670.357	551.855	613.853	432.392	461.1	481.542	550.841	719.749	645.3	627.644	601.892	453.288	500.103	686.054	570.324	698.168	822.593	654.766	593.538	484.772	421.585	486.992	593.821	519.715	541.458	531.408
150150000	35.49	508.64	543.813	529.2	526.12	608.627	493.673	392.103	401.956	531.434	552.797	648.351	859.09	647.811	534.617	561.843	425.341	445.512	480.381	600.705	692.936	637.812	603.761	586.767	488.582	493.864	721.397	608.231	698.32	815.781	682.086	601.04	443.821	384.974	441.386	558.19	510.779	577.402	493.325
180050000	35.96	509.798	540.458	540.12	491.443	597.036	572.188	431.51	438.038	477.582	530.112	683.547	863.995	714.548	530.449	591.719	444.524	436.529	460.154	588.727	716.283	648.482	614.606	526.59	490.234	489.638	697.899	663.402	726.638	802.228	689.773	638.486	482.124	372.954	444.709	604.971	545.209	611.004	484.292
180150000	35.96	443.546	546.854	488.531	484.542	609.705	511.951	431.703	401.207	517.551	533.276	673.513	821.622	672.172	582.754	547.462	445.017	429.329	476.399	594.805	665.438	658.072	592.491	578.823	476.017	467.855	696.609	597.537	709.501	805.323	654.783	610.02	437.648	410.565	423.529	555.48	555.517	653.209	476.412
210050000	36.48	488.688	541.233	507.693	466.677	618.244	537.305	436.722	415.267	474.953	545.633	656.485	808.077	596.061	548.176	625.434	413.502	378.581	473.469	587.554	676.779	640.489	606.507	535.298	472.48	500.72	708.477	624.37	700.913	761.962	719.29	587.783	492.951	376.251	478.897	555.551	580.186	570.114	480.8
210150000	36.48	499.44	568.429	475.358	500.005	581.373	534.137	504.715	382.948	478.479	556.229	716.804	822.93	664.419	522.331	548.751	429.005	446.321	453.165	577.76	677.781	676.149	594.419	554.611	485.518	468.234	657.82	620.571	713.582	799.831	674.951	628.621	476.065	381.343	450.188	576.104	544.667	573.546	488.494
240050000	37.03	540.376	568.301	483.064	469.575	624.339	501.81	469.423	435.463	480.708	558.738	672.338	835.5	675.975	549.77	594.994	470.546	460.357	486.37	553.379	724.026	684.774	608.593	573.024	485.144	466.556	754.568	609.507	749.168	864.867	706.67	657.103	495.697	402.723	476.238	561	553.816	582.576	494.619
240150000	37.03	476.362	541.525	535.616	478.066	615.688	520.292	431.5	421	482.944	590.442	694.035	846.869	694.025	581.122	622.955	414.115	431.379	504.418	574.546	704.461	668.308	602.918	552.404	501.456	496.937	722.876	620.388	727.173	819.029	680.164	601.362	482.57	396.55	457.429	604.551	606.576	562.596	471.171
270050000	37.5	491.858	529.17	536.682	454.588	584.36	522.69	439.232	425.354	473.877	557.197	659.033	852.037	651.356	587.493	546.917	433.582	443.162	471.742	589.623	667.14	692.956	642.832	580.761	474.823	486.544	752.746	639.932	690.516	799.095	683.457	601.393	480.482	322.755	483.315	591.894	584.996	607.376	506.871
270150000	37.5	517.227	553.902	542.902	472.6	645.699	515.805	489.596	434.575	482.599	520.416	706.473	894.697	654.334	552.385	542.455	428.981	467.65	472.802	552.047	743.253	682.387	622.82	529.763	444.525	454.217	711.26	612.509	674.767	831.755	706.023	631.385	483.192	439.752	473.976	568.708	576.122	584.245	535.027
300050000	38.01	513.505	531.636	533.958	490.204	611.796	544.403	434.325	417.719	492.173	574.815	677.605	869.476	633.42	557.118	608.785	452.325	404.024	503.535	638.701	700.42	667.484	602.279	556.854	517.097	448.264	729.426	662.928	715.42	811.593	745.669	663.476	515.127	444.34	444.32	591.148	605.795	630.568	481.764
300150000	38.01	487.266	506.139	517.196	530.857	594.52	509.509	484.062	465.136	491.512	552.68	720.436	885.401	654.855	584.209	586.54	441.365	411.405	491.91	592.413	729.258	697.221	635.57	577.432	492.998	495.811	712.285	639.527	726.954	818.819	726.918	604.992	542.759	376.522	450.593	577.973	630.891	618.535	461.739
330050000	38.52	491.154	568.211	545.171	494.781	654.998	542.535	473.409	408.202	513.305	561.805	680.36	842.099	657.312	614.292	588.704	423.365	464.24	461.969	589.177	747.196	712.387	605.09	529.199	506.348	467.876	764.731	650.006	717.432	845.753	684.594	588.457	487.865	435.539	470.476	554.173	559.215	588.951	486.301
330150000	38.52	499.557	519.898	570.72	492.351	621.185	504.723	448.701	387.695	521.732	560.213	697.253	841.15	633.452	566.88	531.289	442.743	441.098	473.341	553.957	703.5	665.567	684.377	567.679	486.657	480.439	728.149	623.773	725.813	838.418	702.461	588.425	482.795	416.331	475.765	570.542	618.492	594.606	544.641
360050000	39	510.541	531.46	556.429	515.939	682.027	560.392	484.438	440.191	502.842	577.499	674.531	907.128	683.341	536.518	592.549	423.075	433.636	490.28	579.548	733.903	734.516	611.65	592.345	504.619	515.257	711.124	644.39	720.241	806.776	769.888	651.47	533.707	409.288	493.857	612.476	601.163	617.882	486.254
360150000	39.01	548.186	563.146	571.724	501.73	676.293	579.681	449.871	453.94	491.274	550.552	665.529	865.876	695.937	569.754	604.185	428.873	478.326	445.716	597.208	716.629	706.969	665.574	570.177	513.738	492.734	775.523	651.274	739.944	820.523	724.248	616.577	522.984	414.513	494.111	612.739	597.039	620.189	534.465
390050000	39.51	499.645	526.725	536.607	544.046	643.166	565.071	517.112	413.793	512.605	573.034	700.184	873.457	685.68	617.611	623.466	459.454	406.019	512.267	604.36	701.587	718.004	634.302	588.746	472.352	499.544	734.05	659.189	720.647	837.186	699.632	639.259	518.707	441.896	469.712	603.589	566.083	606.342	484.815
390150000	39.51	509.525	568.207	531.093	498.316	640.583	535.131	475.232	411.796	502.883	596.659	727.344	889.73	653.002	548.675	567.532	425.349	466.426	491.445	630.568	758.901	665.298	603.975	605.517	517.541	506.437	712.93	651.06	764.68	831.399	737.299	645.824	531.997	370.205	493.651	578.978	588.006	667.43	516.731
420050000	40.01	544.94	502.041	525.58	507.712	658.829	534.066	461.086	449.142	518.681	575.927	709.169	899.837	717.436	615.484	612.008	459.385	431.971	487.672	598.513	733.231	698.157	656.893	562.333	495.525	497.315	738.948	664.821	769.599	823.873	724.234	626.328	505.578	418.291	460.265	575.856	580.008	615.387	487.488
420150000	40.01	496.794	533.887	543.231	515.351	654.459	547.732	437.041	435.785	535.354	518.665	654.335	864.296	696.622	573.248	585.934	416.764	485	429.524	564.976	718.203	682.197	652.809	616.136	493.437	459.787	725.785	628.799	725.172	839.654	724.152	679.573	474.117	408.85	482.521	551.799	583.32	622.368	517.363
450050000	40.49	524.846	561.115	540.389	523.578	638.217	544.133	492.481	405.575	526.541	593.373	732.371	873.185	661.459	593.692	614.309	450.575	452.414	491.877	638.415	707.829	699.687	660.132	568.817	534.007	521.388	757.037	678.561	715.78	800.576	707.088	625.739	542.013	424.389	490.733	602.363	610.426	590.155	532.094
450150000	40.49	476.628	529.778	540.693	534.735	622.145	503.715	486.266	424.777	526.115	553.826	668.875	872.085	647.767	572.665	614.149	461.166	455.781	497.771	588.741	691.83	701.801	645.063	578.434	486.069	498.699	778.229	708.245	787.95	820.424	689.596	655.15	491.858	416.473	521.963	640.314	607.558	633.772	492.41
480050000	41.02	513.33	559.488	590.269	505.611	681.438	551.15	420.998	437.665	537.537	578.217	648.216	887.898	713.59	581.836	609.164	496.889	464.133	519.681	622.505	718.608	710.207	644.839	610.191	529.728	496.397	740.06	630.861	774.726	841.413	693.314	642.818	535.37	369.28	461.36	613.332	582.512	672.374	492.214
480150000	41.02	483.619	528.917	554.982	522.079	624.114	564.053	468.926	419.057	526.512	592.31	699.811	862.791	686.583	607.228	633.774	455.49	469.552	457.989	635.422	772.802	767.275	668.417	624.84	500.7	471.535	739.085	670.861	753.41	848.987	733.526	621.277	496.728	447.265	499.706	544.668	552.688	629.237	484.403
510050000	41.53	509.11	570.242	557.289	512.672	644.91	592.524	523.304	419.82	497.16	578.546	679.46	867.726	705.459	627.878	647.368	455.719	465.495	479.731	617.603	751.12	766.406	684.512	568.333	495.504	488.54	743.488	714.867	814.528	818.542	726.682	652.136	528.516	406.317	483.204	612.608	610.888	658.353	517.746
510150000	41.53	496.849	551.974	556.562	490.789	675.461	518.057	472.139	467.286	512.317	584.359	632.387	886.631	715.17	630.967	619.132	461.108	490.805	469.736	630.974	756.581	712.025	654.21	551.897	516.149	451.869	742.095	666.091	774.929	826.202	738.754	651.117	516.886	431.504	544.537	603.387	632.494	646.4	548.991
540050000	42.03	480.654	562.566	558.031	549.761	628.41	548.119	535.402	463.183	556.486	581.473	644.875	917.145	712.236	625.783	606.836	477.738	469.895	505.09	616.365	787.843	743.487	675.149	633.876	526.371	511.386	762.981	688.37	818.445	812.029	750.491	705.802	499.557	447.501	509.243	635.544	608.915	622.714	533.682
540150000	42.04	516.472	538.824	553.833	499.84	629.091	513.9	475.715	466.221	530.432	538.732	663.705	915.075	730.86	651.261	582.517	473.887	524.131	481.936	639.151	750.366	684.677	686.727	596.44	541.69	502.551	719.002	713.368	773.139	821.842	722.168	694.731	489.746	437.092	511.524	621.234	578.116	644.355	501.548
570050000	42.57	477.257	564.623	544.696	460.191	650.792	537.781	480.201	474.954	504.444	555.045	669.733	888.43	659.597	581.462	622.147	488.526	496.917	511.956	647.664	770.113	703.292	694.061	588.037	479.57	531.465	733.269	687.086	800.532	813.928	700.465	622.561	510.184	457.432	517.566	595.852	607.099	661.738	565.283
570150000	42.58	494.5	494.39	557.369	536.585	634.606	559.9	474.988	403.48	508.844	593.635	653.745	876.469	692.529	551.77	607.362	431.543	432.057	455.441	637.43	724.94	736.77	705.864	628.172	496.797	539.037	757.806	656.074	754.717	802.863	718.539	629.13	500.876	452.138	495.823	617.903	573.455	625.361	547.535
600050000	43.05	527.204	533.333	523.167	533.585	627.615	551.573	515.086	469.845	562.22	555.694	704.211	873.461	678.73	634.644	653.77	450.18	462.419	493.238	608.375	801.599	758.166	683.006	627.505	490.716	462.769	759.145	715.097	800.977	905.696	735.179	679.117	503.412	473.977	517.868	581.951	604.368	665.695	555.276
600150000	43.06	505.468	545.673	573.753	522.621	625.922	542.73	508.062	437.638	504.344	550.913	644.949	871.588	692.515	596.578	619.24	460.45	486.088	497.139	647.104	783.708	750.358	671.482	601.231	507	495.259	748.037	650.101	773.266	881.424	720.642	680.506	492.459	385.597	519.878	602.728	653.444	624.725	541.955
630050000	43.59	510.56	562.956	569.589	521.621	585.844	560.644	516.55	447.678	518.414	571.953	644.509	887.961	728.837	646.106	643.366	483.084	466.986	509.211	635.291	816.419	763.126	676.229	631.75	491.165	488.446	767.583	734.485	817.665	788.04	747.518	656.237	516.982	466.337	511.997	648.739	597.076	668.449	531.007
630150000	43.59	531.869	545.93	563.662	513.44	632.488	546.965	566.471	412.343	500.984	556.341	658.793	848.044	681.855	629.366	590.762	474.248	492.543	512.302	643.695	758.309	721.865	700.788	592.42	515.979	506.117	712.94	717.948	775.566	782.702	702.339	637.619	543.352	425.475	538.643	607.471	574.667	630.394	573.492
660050000	44.08	487.378	532.693	553.991	549.644	594.844	531.414	499.194	434.668	507.039	598.57	662.011	867.007	707.324	614.157	636.46	472.589	530.26	562.623	656.78	800.367	764.834	689.717	628.116	547.444	499.708	812.647	705.577	859.888	819.439	764.164	681.324	535.199	474.504	511.603	631.153	610.172	643.456	517.174
660150000	44.08	501.695	531.525	546.511	517.468	697.741	596.215	475.739	428.847	528.457	586.055	698.702	883.367	737.669	619.149	668.987	479.079	505.331	520.509	663.642	788.7	743.613	736.83	667.249	509.669	509.75	750.264	736.398	819.647	875.595	733.048	699.196	569.798	422.331	539.831	623.467	654.149	655.725	540.116
690050000	44.58	532.759	584.826	587.333	484.802	686.945	568.962	464.395	423.368	544.805	607.58	681.076	915.869	694.769	653.638	664.634	528.026	504.302	493.903	651.057	801.5	794.799	707.224	598.037	488.324	502.07	746.494	715.688	836.807	861.272	739.57	675.692	563.658	457.712	552.624	644.254	632.506	656.74	539.543
690150000	44.59	497.518	567.723	564.787	509.735	660.44	561.633	501.057	418.747	540.689	587.312	664.407	912.685	728.257	602.331	626.872	492.495	481.126	474.725	686.413	785.655	743.224	680.48	621.862	540.856	472.171	728.942	688.457	851.42	852.087	719.45	642.253	526.857	474.176	473.13	593.343	637.913	625.415	544.506
720050000	45.11	520.284	552.214	545.231	516.473	701.507	565.553	504.036	483.283	536.175	599.635	670.058	904.172	710.448	592.017	623.298	506.385	482.624	495.178	684.945	794.21	798.021	743.776	633.501	539.92	488.591	786.027	737.738	822.578	835.586	696.442	674.346	502.174	468.939	576.077	616.929	626.994	613.159	550.835
720150000	45.11	503.633	558.185	621.302	546.891	680.579	601.819	507.218	451.692	534.469	623.065	669.444	891.966	718.336	648.491	664.594	466.952	524.052	504.894	678.024	811.367	778.654	732.174	607.144	537.272	569.965	791.05	754.618	803.264	861.713	756.731	676.018	538.953	460.176	529.487	598.268	624.853	654.088	588.011
750050000	45.58	528.099	556.434	562.493	499.13	675.916	551.365	518.404	450.371	572.654	599.73	680.88	926.566	708.1	634.265	636.764	497.572	534.745	544.844	703.627	836.145	787.408	762.442	645.542	526.53	525.065	817.897	761.809	838.742	877.831	747.147	669.84	501.733	429.49	546.574	644.938	654.773	710.097	511.145
750150000	45.59	526.073	568.686	606.082	453.878	692.714	543.723	508.569	501.55	551.691	632.201	695.455	898.468	734.168	657.634	654.4	534.099	491.526	563.509	709.505	819.38	841.727	748.893	612.292	532.922	541.255	817.537	695.988	867.549	852.376	764.85	663.573	546.471	482.231	552.831	644.646	651.715	624.206	583.784
780050000	46.08	543.761	629.588	630.327	579.031	676.04	564.785	480.83	486.586	605.457	610.641	692.915	978.799	752.625	725.822	687.083	505.642	493.436	539.546	718.098	865.263	815.47	758.015	675.089	542.974	522.507	814.081	756.485	861.193	846.867	732.211	694.198	533.399	482.274	534.378	675.089	672.634	713.671	575.657
780150000	46.08	523.367	600.684	601.913	545.079	688.059	590.639	498.608	426.597	587.862	634.651	706.72	969.757	749.298	663.791	692.128	501.385	578.538	555.529	703.006	853.163	835.634	787.706	664.667	556.123	495.068	781.711	767.66	848.119	842.913	762.901	679.559	522.92	461.297	520.392	666.98	685.603	677.06	571.094
810050000	46.6	505.532	592.793	652.744	564.468	705.474	590.316	511.557	426.537	576.854	662.811	713.7	1003.447	765.285	705.091	691.817	503.798	561.05	538.546	701.373	890.435	864.843	780.478	657.499	595.631	555.07	824.731	771.837	845.759	871.211	747.945	727.17	517.645	438.96	548.725	675.053	689.118	685.561	575.134
810150000	46.6	535.188	564.874	614.6	544.552	670.804	587.699	505.83	449.687	556.632	636.811	707.482	981.893	719.306	679.456	716.87	513.262	532.671	531.41	692.888	854.479	842.449	790.191	666.002	574.707	532.86	823.597	752.264	883.782	854.152	780.408	698.247	525.526	483.695	543.799	643.794	635.643	666.51	590.82
840050000	47.1	558.463	597.144	616.618	539.102	688.539	624.885	528.945	474.335	642.529	650.866	737.611	1036.546	803.609	676.704	702.792	502.351	553.538	571.872	718.605	908.018	900.503	821.631	705.428	611.348	568.313	872.731	742.205	879.206	928.741	819.299	716.026	553.777	491.96	588.992	667.869	718.785	717.695	598.996
840150000	47.1	513.156	603.414	698.189	583.924	708.665	570.746	516.024	517.466	590.28	698.592	752.502	1018.389	782.299	696.017	678.217	505.675	574.555	575.694	762.55	862.336	872.863	833.333	641.13	545.579	541.339	857.806	745.907	846.096	947.894	801.844	744.957	570.194	489.937	565.616	714.082	744.289	721.475	588.777
870050000	47.58	552.606	617.057	652.464	610.532	784.072	572.586	508.947	467.401	612.946	661.314	742.524	999.189	815.11	714.619	752.943	548.118	559.681	557.242	768.171	921.94	883.687	879.702	729.264	582.991	584.217	815.527	799.044	921.971	896.625	789.994	754.506	564.143	504.487	555.944	759.881	670.279	661.716	578.254
870150000	47.59	523.654	639.122	658.091	565.547	736.836	624.226	584.667	460.621	590.617	669.134	747.089	1080.389	799.403	731.437	698.147	511.298	606.94	559.678	735.587	870.968	958.366	858.866	685.099	642.787	549.311	877.269	776.742	854.395	894.182	780.335	731.759	563.593	473.115	573.368	709.79	749.676	698.138	634.283
900050000	48.1	546.867	567.669	696.904	639.397	783.964	588.46	535.428	485.567	634.232	702.548	761.442	1105.469	830.748	754.677	725.651	475.18	556.112	540.896	767.994	928.521	967.882	964.296	727.976	652.759	559.122	916.957	783.557	915.326	933.563	844.556	793.364	535.622	446.277	539.878	775.44	745.572	772.325	631.526
900150000	48.1	565.085	627.294	756.282	640.659	803.958	640.394	555.376	473.899	605.938	677.17	774.404	1103.655	810.485	805.561	714.166	535.827	569.543	543.678	812.851	888.827	931.905	850.359	684.01	602.274	586.493	877.891	794.934	844.545	971.633	831.116	785.32	583.14	471.859	549.14	707.168	723.091	713.404	607.624
